* superterrestrial solar spectral irradiance from C. Gueymard, 'Revised composite extraterrestrial spectrum based on recent solar irradiance observations', Solar Energy, 2018
* wavelength in um irradiance in mW cm^{-2} um^{-1}
* solar constant 136.11 mW cm^{-2}
   0.0005 2.2780E-04
   0.0015 1.2190E-02
   0.0025 1.5130E-03
   0.0035 2.5190E-03
   0.0045 3.7080E-03
   0.0055 4.6100E-03
   0.0065 4.3670E-03
   0.0075 3.1150E-03
   0.0085 2.8280E-03
   0.0095 1.6520E-03
   0.0105 6.7710E-04
   0.0115 3.3620E-04
   0.0125 1.7560E-04
   0.0135 1.9580E-04
   0.0145 2.1400E-03
   0.0155 1.6360E-03
   0.0165 3.3980E-03
   0.0175 5.0080E-02
   0.0185 2.8750E-02
   0.0195 2.0380E-02
   0.0205 1.9580E-02
   0.0215 9.4100E-03
   0.0225 1.0250E-02
   0.0235 2.2870E-03
   0.0245 4.7620E-03
   0.0255 1.1730E-02
   0.0265 4.0250E-03
   0.0275 8.4750E-03
   0.0285 8.5560E-03
   0.0295 4.3750E-03
   0.0305 6.2520E-02
   0.0315 1.1900E-02
   0.0325 1.5930E-02
   0.0335 1.5660E-02
   0.0345 6.9370E-03
   0.0355 5.9330E-03
   0.0365 8.0390E-03
   0.0375 1.3830E-03
   0.0385 5.9310E-04
   0.0395 5.8320E-04
   0.0405 9.7810E-04
   0.0415 1.8100E-03
   0.0425 4.7980E-04
   0.0435 1.1010E-03
   0.0445 4.3890E-04
   0.0455 4.8240E-04
   0.0465 1.7380E-03
   0.0475 6.9250E-04
   0.0485 1.1550E-03
   0.0495 3.9650E-03
   0.0505 1.6800E-03
   0.0515 5.7430E-04
   0.0525 9.8080E-04
   0.0535 7.4580E-04
   0.0545 4.8430E-04
   0.0555 2.1650E-03
   0.0565 6.5780E-04
   0.0575 6.5280E-04
   0.0585 3.6890E-03
   0.0595 7.7760E-04
   0.0605 3.1120E-03
   0.0615 9.7370E-04
   0.0625 4.2090E-03
   0.0635 1.0600E-03
   0.0645 2.4420E-04
   0.0655 1.9160E-04
   0.0665 1.7090E-04
   0.0675 1.7500E-04
   0.0685 6.0270E-04
   0.0695 4.4520E-04
   0.0705 1.1720E-03
   0.0715 5.1200E-04
   0.0725 3.8330E-04
   0.0735 4.9950E-04
   0.0745 6.1550E-04
   0.0755 9.4120E-04
   0.0765 2.3790E-03
   0.0775 2.1560E-03
   0.0785 3.0430E-03
   0.0795 1.4290E-03
   0.0805 1.4680E-03
   0.0815 1.6680E-03
   0.0825 2.4650E-03
   0.0835 4.2090E-03
   0.0845 3.0610E-03
   0.0855 3.4090E-03
   0.0865 3.6130E-03
   0.0875 4.3010E-03
   0.0885 4.9150E-03
   0.0895 5.9780E-03
   0.0905 7.0440E-03
   0.0915 5.3890E-03
   0.0925 1.9220E-03
   0.0935 1.6850E-03
   0.0945 1.2010E-03
   0.0955 6.9640E-04
   0.0965 7.2410E-04
   0.0975 1.2960E-02
   0.0985 1.4740E-03
   0.0995 2.2740E-03
   0.1005 9.2150E-04
   0.1015 1.0650E-03
   0.1025 9.7190E-03
   0.1035 1.0040E-02
   0.1045 1.4700E-03
   0.1055 1.2440E-03
   0.1065 1.1840E-03
   0.1075 1.2570E-03
   0.1085 2.1090E-03
   0.1095 1.4190E-03
   0.1105 1.5130E-03
   0.1115 1.3880E-03
   0.1125 1.5120E-03
   0.1135 1.1810E-03
   0.1145 7.9900E-04
   0.1155 1.3130E-03
   0.1165 1.4840E-03
   0.1175 6.3110E-03
   0.1185 1.6710E-03
   0.1195 5.5560E-03
   0.1205 1.6870E-02
   0.1215 8.1190E-01
   0.1225 5.9620E-03
   0.1235 4.2300E-03
   0.1245 3.2170E-03
   0.1255 3.0500E-03
   0.1265 4.4990E-03
   0.1275 2.3610E-03
   0.1285 1.9320E-03
   0.1295 2.2730E-03
   0.1305 1.8170E-02
   0.1315 2.9640E-03
   0.1325 2.2700E-03
   0.1335 2.1630E-02
   0.1345 2.0230E-03
   0.1355 4.6160E-03
   0.1365 2.9970E-03
   0.1375 3.1880E-03
   0.1385 3.1580E-03
   0.1395 9.2670E-03
   0.1405 7.6940E-03
   0.1415 4.5320E-03
   0.1425 4.8970E-03
   0.1435 5.7080E-03
   0.1445 5.5540E-03
   0.1455 5.9720E-03
   0.1465 7.4240E-03
   0.1475 9.2170E-03
   0.1485 9.3960E-03
   0.1495 8.4730E-03
   0.1505 9.4440E-03
   0.1515 1.0210E-02
   0.1525 1.2860E-02
   0.1535 1.4290E-02
   0.1545 2.5430E-02
   0.1555 2.1010E-02
   0.1565 2.1130E-02
   0.1575 1.9100E-02
   0.1585 1.8370E-02
   0.1595 1.8360E-02
   0.1605 2.0640E-02
   0.1615 2.4190E-02
   0.1625 2.7780E-02
   0.1635 3.0470E-02
   0.1645 3.3910E-02
   0.1655 5.2950E-02
   0.1665 3.6950E-02
   0.1675 4.3620E-02
   0.1685 4.8520E-02
   0.1695 6.3570E-02
   0.1705 7.3520E-02
   0.1715 7.3770E-02
   0.1725 7.9630E-02
   0.1735 7.9930E-02
   0.1745 9.8160E-02
   0.1755 1.2090E-01
   0.1765 1.3100E-01
   0.1775 1.5800E-01
   0.1785 1.7620E-01
   0.1795 1.7230E-01
   0.1805 2.0610E-01
   0.1815 2.4810E-01
   0.1825 2.3120E-01
   0.1835 2.4710E-01
   0.1845 2.1140E-01
   0.1855 2.4170E-01
   0.1865 2.7690E-01
   0.1875 3.2110E-01
   0.1885 3.4020E-01
   0.1895 3.8340E-01
   0.1905 3.9690E-01
   0.1915 4.3600E-01
   0.1925 4.6640E-01
   0.1935 3.5320E-01
   0.1945 5.9010E-01
   0.1955 5.7540E-01
   0.1965 6.5120E-01
   0.1975 6.6030E-01
   0.1985 6.6580E-01
   0.1995 7.2310E-01
   0.2000 7.1060E-01
   0.2005 7.3513E-01
   0.2010 8.0707E-01
   0.2015 8.4543E-01
   0.2020 8.7708E-01
   0.2025 8.4478E-01
   0.2030 9.1859E-01
   0.2035 9.4323E-01
   0.2040 9.9191E-01
   0.2045 1.0773E+00
   0.2050 1.0933E+00
   0.2055 1.0997E+00
   0.2060 1.1061E+00
   0.2065 1.1392E+00
   0.2070 1.2514E+00
   0.2075 1.3126E+00
   0.2080 1.3752E+00
   0.2085 1.5355E+00
   0.2090 1.8678E+00
   0.2095 2.1917E+00
   0.2100 2.5668E+00
   0.2105 2.8847E+00
   0.2110 3.1209E+00
   0.2115 3.4483E+00
   0.2120 3.6927E+00
   0.2125 2.9282E+00
   0.2130 3.2264E+00
   0.2135 3.2661E+00
   0.2140 3.8542E+00
   0.2145 4.2518E+00
   0.2150 3.9835E+00
   0.2155 3.7641E+00
   0.2160 3.4892E+00
   0.2165 3.3798E+00
   0.2170 3.4018E+00
   0.2175 3.4453E+00
   0.2180 4.3961E+00
   0.2185 4.6618E+00
   0.2190 4.6776E+00
   0.2195 4.9603E+00
   0.2200 5.1101E+00
   0.2205 5.1285E+00
   0.2210 3.7527E+00
   0.2215 4.0583E+00
   0.2220 4.4930E+00
   0.2225 5.1201E+00
   0.2230 5.8347E+00
   0.2235 6.6870E+00
   0.2240 6.3864E+00
   0.2245 6.0426E+00
   0.2250 5.7402E+00
   0.2255 5.2271E+00
   0.2260 4.6996E+00
   0.2265 3.8329E+00
   0.2270 3.5837E+00
   0.2275 3.7884E+00
   0.2280 4.8995E+00
   0.2285 5.4531E+00
   0.2290 4.9343E+00
   0.2295 4.9413E+00
   0.2300 4.3026E+00
   0.2305 5.5934E+00
   0.2310 5.3323E+00
   0.2315 5.0623E+00
   0.2320 5.1204E+00
   0.2325 5.5013E+00
   0.2330 4.9551E+00
   0.2335 4.5580E+00
   0.2340 4.1041E+00
   0.2345 3.4950E+00
   0.2350 4.4283E+00
   0.2355 5.5820E+00
   0.2360 4.8751E+00
   0.2365 4.7397E+00
   0.2370 5.0977E+00
   0.2375 4.9335E+00
   0.2380 4.4120E+00
   0.2385 3.9041E+00
   0.2390 4.5621E+00
   0.2395 4.3624E+00
   0.2400 4.3184E+00
   0.2405 3.9772E+00
   0.2410 4.0582E+00
   0.2415 4.9697E+00
   0.2420 6.4243E+00
   0.2425 7.0657E+00
   0.2430 7.0830E+00
   0.2435 6.4871E+00
   0.2440 6.6440E+00
   0.2445 6.3265E+00
   0.2450 5.4784E+00
   0.2455 4.9874E+00
   0.2460 4.9864E+00
   0.2465 4.9519E+00
   0.2470 5.4650E+00
   0.2475 5.7764E+00
   0.2480 5.1674E+00
   0.2485 4.5970E+00
   0.2490 4.2261E+00
   0.2495 5.7383E+00
   0.2500 6.3739E+00
   0.2505 5.9701E+00
   0.2510 5.5842E+00
   0.2515 4.6083E+00
   0.2520 4.1442E+00
   0.2525 4.0661E+00
   0.2530 4.5589E+00
   0.2535 5.2034E+00
   0.2540 5.5837E+00
   0.2545 5.9700E+00
   0.2550 6.4643E+00
   0.2555 8.2618E+00
   0.2560 8.9482E+00
   0.2565 9.6816E+00
   0.2570 1.2213E+01
   0.2575 1.2355E+01
   0.2580 1.3657E+01
   0.2585 1.2313E+01
   0.2590 1.2799E+01
   0.2595 1.0601E+01
   0.2600 8.3382E+00
   0.2605 9.2921E+00
   0.2610 8.2515E+00
   0.2615 8.6753E+00
   0.2620 1.0566E+01
   0.2625 1.1112E+01
   0.2630 9.4888E+00
   0.2635 1.5744E+01
   0.2640 2.4588E+01
   0.2645 2.6362E+01
   0.2650 2.3046E+01
   0.2655 2.6867E+01
   0.2660 2.6536E+01
   0.2665 2.5406E+01
   0.2670 2.4984E+01
   0.2675 2.6629E+01
   0.2680 2.5728E+01
   0.2685 2.5920E+01
   0.2690 2.4337E+01
   0.2695 2.4509E+01
   0.2700 2.6495E+01
   0.2705 2.8245E+01
   0.2710 2.6663E+01
   0.2715 2.4288E+01
   0.2720 1.7580E+01
   0.2725 1.9596E+01
   0.2730 2.3752E+01
   0.2735 2.0706E+01
   0.2740 1.5082E+01
   0.2745 1.3359E+01
   0.2750 1.4371E+01
   0.2755 1.8154E+01
   0.2760 2.3150E+01
   0.2765 2.5936E+01
   0.2770 2.5776E+01
   0.2775 2.5702E+01
   0.2780 1.9677E+01
   0.2785 1.6892E+01
   0.2790 1.2540E+01
   0.2795 8.1587E+00
   0.2800 7.8018E+00
   0.2805 9.7054E+00
   0.2810 1.5627E+01
   0.2815 2.2108E+01
   0.2820 2.7195E+01
   0.2825 3.0201E+01
   0.2830 3.2491E+01
   0.2835 3.1976E+01
   0.2840 3.0911E+01
   0.2845 2.4706E+01
   0.2850 1.4410E+01
   0.2855 1.4168E+01
   0.2860 2.6703E+01
   0.2865 3.3726E+01
   0.2870 3.6623E+01
   0.2875 3.5966E+01
   0.2880 2.9309E+01
   0.2885 3.4108E+01
   0.2890 4.1090E+01
   0.2895 4.8679E+01
   0.2900 5.8350E+01
   0.2905 6.2027E+01
   0.2910 6.0940E+01
   0.2915 5.8795E+01
   0.2920 5.5922E+01
   0.2925 5.2007E+01
   0.2930 5.4538E+01
   0.2935 5.6202E+01
   0.2940 5.2089E+01
   0.2945 5.2700E+01
   0.2950 5.1843E+01
   0.2955 5.6158E+01
   0.2960 5.8224E+01
   0.2965 5.1155E+01
   0.2970 4.3635E+01
   0.2975 5.3891E+01
   0.2980 5.4472E+01
   0.2985 3.9446E+01
   0.2990 5.1778E+01
   0.2995 5.0240E+01
   0.3000 4.4866E+01
   0.3005 4.2804E+01
   0.3010 4.6652E+01
   0.3015 4.9837E+01
   0.3020 4.3864E+01
   0.3025 5.3152E+01
   0.3030 6.3794E+01
   0.3035 6.5888E+01
   0.3040 6.0856E+01
   0.3045 6.3517E+01
   0.3050 6.4108E+01
   0.3055 6.1946E+01
   0.3060 5.4773E+01
   0.3065 5.7690E+01
   0.3070 6.1547E+01
   0.3075 6.4180E+01
   0.3080 6.4710E+01
   0.3085 6.5035E+01
   0.3090 5.6363E+01
   0.3095 5.0570E+01
   0.3100 4.9338E+01
   0.3105 6.6089E+01
   0.3110 7.7783E+01
   0.3115 7.5172E+01
   0.3120 6.5649E+01
   0.3125 6.7240E+01
   0.3130 6.9618E+01
   0.3135 7.1543E+01
   0.3140 7.5176E+01
   0.3145 6.2396E+01
   0.3150 7.0523E+01
   0.3155 6.5734E+01
   0.3160 5.5641E+01
   0.3165 6.5007E+01
   0.3170 7.7114E+01
   0.3175 8.2136E+01
   0.3180 6.5927E+01
   0.3185 6.6166E+01
   0.3190 7.2854E+01
   0.3195 6.9981E+01
   0.3200 8.1191E+01
   0.3205 8.5212E+01
   0.3210 7.4160E+01
   0.3215 6.8476E+01
   0.3220 7.6609E+01
   0.3225 6.9870E+01
   0.3230 6.4875E+01
   0.3235 6.7781E+01
   0.3240 7.4757E+01
   0.3245 7.9683E+01
   0.3250 8.0208E+01
   0.3255 9.2234E+01
   0.3260 1.0111E+02
   0.3265 9.9268E+01
   0.3270 9.9411E+01
   0.3275 9.7921E+01
   0.3280 9.4730E+01
   0.3285 9.2074E+01
   0.3290 9.9847E+01
   0.3295 1.1042E+02
   0.3300 1.1152E+02
   0.3305 9.8663E+01
   0.3310 9.8425E+01
   0.3315 9.6787E+01
   0.3320 9.9447E+01
   0.3325 9.5458E+01
   0.3330 9.5929E+01
   0.3335 9.2080E+01
   0.3340 9.3402E+01
   0.3345 1.0056E+02
   0.3350 9.5424E+01
   0.3355 9.9564E+01
   0.3360 8.1321E+01
   0.3365 8.5788E+01
   0.3370 7.7949E+01
   0.3375 8.9621E+01
   0.3380 9.0625E+01
   0.3385 9.3343E+01
   0.3390 9.6218E+01
   0.3395 9.3659E+01
   0.3400 1.0788E+02
   0.3405 1.0035E+02
   0.3410 9.5085E+01
   0.3415 8.8731E+01
   0.3420 1.0021E+02
   0.3425 9.5908E+01
   0.3430 1.0527E+02
   0.3435 9.8897E+01
   0.3440 8.2934E+01
   0.3445 7.6345E+01
   0.3450 9.3938E+01
   0.3455 9.8185E+01
   0.3460 9.0686E+01
   0.3465 9.5060E+01
   0.3470 9.7570E+01
   0.3475 8.7858E+01
   0.3480 9.2112E+01
   0.3485 9.4059E+01
   0.3490 8.9851E+01
   0.3495 8.9234E+01
   0.3500 1.0107E+02
   0.3505 1.0980E+02
   0.3510 1.0369E+02
   0.3515 9.7716E+01
   0.3520 1.0040E+02
   0.3525 8.7650E+01
   0.3530 1.0039E+02
   0.3535 1.0818E+02
   0.3540 1.1314E+02
   0.3545 1.1436E+02
   0.3550 1.1457E+02
   0.3555 1.0558E+02
   0.3560 1.0482E+02
   0.3565 9.3999E+01
   0.3570 8.1029E+01
   0.3575 8.8218E+01
   0.3580 7.7582E+01
   0.3585 6.7260E+01
   0.3590 8.7301E+01
   0.3595 1.0791E+02
   0.3600 1.1345E+02
   0.3605 9.8861E+01
   0.3610 8.9198E+01
   0.3615 9.6693E+01
   0.3620 9.1034E+01
   0.3625 1.0813E+02
   0.3630 1.0731E+02
   0.3635 9.8327E+01
   0.3640 1.1273E+02
   0.3645 1.0319E+02
   0.3650 1.0446E+02
   0.3655 1.2377E+02
   0.3660 1.2875E+02
   0.3665 1.2656E+02
   0.3670 1.2284E+02
   0.3675 1.2544E+02
   0.3680 1.1377E+02
   0.3685 1.1381E+02
   0.3690 1.1752E+02
   0.3695 1.2712E+02
   0.3700 1.3052E+02
   0.3705 1.1396E+02
   0.3710 1.1417E+02
   0.3715 1.2793E+02
   0.3720 1.0532E+02
   0.3725 1.0532E+02
   0.3730 1.0952E+02
   0.3735 8.3464E+01
   0.3740 9.6762E+01
   0.3745 9.2557E+01
   0.3750 8.8892E+01
   0.3755 1.1645E+02
   0.3760 1.0905E+02
   0.3765 1.1018E+02
   0.3770 1.1727E+02
   0.3775 1.3268E+02
   0.3780 1.4288E+02
   0.3785 1.3830E+02
   0.3790 1.1726E+02
   0.3795 1.0770E+02
   0.3800 1.0803E+02
   0.3805 1.2771E+02
   0.3810 1.2856E+02
   0.3815 1.0807E+02
   0.3820 9.3227E+01
   0.3825 7.9280E+01
   0.3830 7.1906E+01
   0.3835 6.9060E+01
   0.3840 7.9025E+01
   0.3845 1.0167E+02
   0.3850 1.0660E+02
   0.3855 1.0175E+02
   0.3860 9.3055E+01
   0.3865 1.0667E+02
   0.3870 9.9428E+01
   0.3875 1.0144E+02
   0.3880 9.9704E+01
   0.3885 9.8391E+01
   0.3890 1.0475E+02
   0.3895 1.2267E+02
   0.3900 1.2617E+02
   0.3905 1.2078E+02
   0.3910 1.3438E+02
   0.3915 1.3973E+02
   0.3920 1.2266E+02
   0.3925 1.0542E+02
   0.3930 6.6923E+01
   0.3935 4.8483E+01
   0.3940 7.8917E+01
   0.3945 1.0726E+02
   0.3950 1.2890E+02
   0.3955 1.3439E+02
   0.3960 1.1796E+02
   0.3965 7.5771E+01
   0.3970 6.0611E+01
   0.3975 9.9812E+01
   0.3980 1.4212E+02
   0.3985 1.5264E+02
   0.3990 1.6513E+02
   0.3995 1.6769E+02
   0.4000 1.6894E+02
   0.4010 1.7260E+02
   0.4020 1.7762E+02
   0.4030 1.7221E+02
   0.4040 1.7124E+02
   0.4050 1.6800E+02
   0.4060 1.6426E+02
   0.4070 1.6377E+02
   0.4080 1.6857E+02
   0.4090 1.8142E+02
   0.4100 1.5852E+02
   0.4110 1.7391E+02
   0.4120 1.8392E+02
   0.4130 1.7614E+02
   0.4140 1.7941E+02
   0.4150 1.7736E+02
   0.4160 1.8277E+02
   0.4170 1.7656E+02
   0.4180 1.7253E+02
   0.4190 1.7414E+02
   0.4200 1.7068E+02
   0.4210 1.8074E+02
   0.4220 1.7488E+02
   0.4230 1.6699E+02
   0.4240 1.7269E+02
   0.4250 1.7289E+02
   0.4260 1.6924E+02
   0.4270 1.6530E+02
   0.4280 1.6562E+02
   0.4290 1.5675E+02
   0.4300 1.3401E+02
   0.4310 1.3392E+02
   0.4320 1.7429E+02
   0.4330 1.7467E+02
   0.4340 1.6088E+02
   0.4350 1.7490E+02
   0.4360 1.8619E+02
   0.4370 1.8585E+02
   0.4380 1.7114E+02
   0.4390 1.7195E+02
   0.4400 1.8030E+02
   0.4410 1.8488E+02
   0.4420 1.9622E+02
   0.4430 1.9568E+02
   0.4440 1.9739E+02
   0.4450 1.9635E+02
   0.4460 1.8673E+02
   0.4470 1.9883E+02
   0.4480 2.0268E+02
   0.4490 2.0335E+02
   0.4500 2.0736E+02
   0.4510 2.1488E+02
   0.4520 2.0779E+02
   0.4530 1.9367E+02
   0.4540 2.0276E+02
   0.4550 1.9989E+02
   0.4560 2.0687E+02
   0.4570 2.0961E+02
   0.4580 2.0557E+02
   0.4590 2.0423E+02
   0.4600 2.0306E+02
   0.4610 2.0901E+02
   0.4620 2.1021E+02
   0.4630 2.1000E+02
   0.4640 2.0682E+02
   0.4650 2.0239E+02
   0.4660 2.0357E+02
   0.4670 1.9916E+02
   0.4680 2.0237E+02
   0.4690 2.0338E+02
   0.4700 1.9850E+02
   0.4710 1.9792E+02
   0.4720 2.0815E+02
   0.4730 2.0410E+02
   0.4740 2.0548E+02
   0.4750 2.0768E+02
   0.4760 2.0314E+02
   0.4770 2.0553E+02
   0.4780 2.0991E+02
   0.4790 2.0626E+02
   0.4800 2.0879E+02
   0.4810 2.0806E+02
   0.4820 2.1029E+02
   0.4830 2.0654E+02
   0.4840 2.0114E+02
   0.4850 1.9699E+02
   0.4860 1.6972E+02
   0.4870 1.7998E+02
   0.4880 1.9407E+02
   0.4890 1.9408E+02
   0.4900 2.0384E+02
   0.4910 2.0025E+02
   0.4920 1.9041E+02
   0.4930 1.9699E+02
   0.4940 1.9774E+02
   0.4950 2.0370E+02
   0.4960 1.9875E+02
   0.4970 2.0169E+02
   0.4980 1.9625E+02
   0.4990 1.9488E+02
   0.5000 1.9316E+02
   0.5010 1.8820E+02
   0.5020 1.8849E+02
   0.5030 1.9351E+02
   0.5040 1.9193E+02
   0.5050 1.9500E+02
   0.5060 2.0115E+02
   0.5070 1.9471E+02
   0.5080 1.8941E+02
   0.5090 1.9418E+02
   0.5100 1.9161E+02
   0.5110 1.9383E+02
   0.5120 1.9573E+02
   0.5130 1.8682E+02
   0.5140 1.8472E+02
   0.5150 1.8608E+02
   0.5160 1.8422E+02
   0.5170 1.6269E+02
   0.5180 1.7088E+02
   0.5190 1.7517E+02
   0.5200 1.8367E+02
   0.5210 1.8508E+02
   0.5220 1.8746E+02
   0.5230 1.8292E+02
   0.5240 1.9232E+02
   0.5250 1.9194E+02
   0.5260 1.8403E+02
   0.5270 1.7218E+02
   0.5280 1.8638E+02
   0.5290 1.9434E+02
   0.5300 1.9224E+02
   0.5310 1.9600E+02
   0.5320 1.9038E+02
   0.5330 1.8253E+02
   0.5340 1.8867E+02
   0.5350 1.9023E+02
   0.5360 1.9408E+02
   0.5370 1.8681E+02
   0.5380 1.8973E+02
   0.5390 1.8820E+02
   0.5400 1.8122E+02
   0.5410 1.8091E+02
   0.5420 1.8776E+02
   0.5430 1.8472E+02
   0.5440 1.8962E+02
   0.5450 1.8868E+02
   0.5460 1.8920E+02
   0.5470 1.8742E+02
   0.5480 1.8591E+02
   0.5490 1.8800E+02
   0.5500 1.8815E+02
   0.5510 1.8697E+02
   0.5520 1.8816E+02
   0.5530 1.8531E+02
   0.5540 1.8848E+02
   0.5550 1.8944E+02
   0.5560 1.8658E+02
   0.5570 1.8283E+02
   0.5580 1.8361E+02
   0.5590 1.7952E+02
   0.5600 1.8158E+02
   0.5610 1.8486E+02
   0.5620 1.8216E+02
   0.5630 1.8565E+02
   0.5640 1.8402E+02
   0.5650 1.8365E+02
   0.5660 1.7866E+02
   0.5670 1.8446E+02
   0.5680 1.8399E+02
   0.5690 1.8273E+02
   0.5700 1.8303E+02
   0.5710 1.7755E+02
   0.5720 1.8459E+02
   0.5730 1.8712E+02
   0.5740 1.8656E+02
   0.5750 1.8364E+02
   0.5760 1.8279E+02
   0.5770 1.8433E+02
   0.5780 1.8133E+02
   0.5790 1.8131E+02
   0.5800 1.8285E+02
   0.5810 1.8262E+02
   0.5820 1.8479E+02
   0.5830 1.8480E+02
   0.5840 1.8442E+02
   0.5850 1.8167E+02
   0.5860 1.7792E+02
   0.5870 1.8152E+02
   0.5880 1.7973E+02
   0.5890 1.6621E+02
   0.5900 1.7225E+02
   0.5910 1.7882E+02
   0.5920 1.7934E+02
   0.5930 1.7833E+02
   0.5940 1.7848E+02
   0.5950 1.7688E+02
   0.5960 1.7797E+02
   0.5970 1.7870E+02
   0.5980 1.7636E+02
   0.5990 1.7579E+02
   0.6000 1.7543E+02
   0.6010 1.7415E+02
   0.6020 1.7274E+02
   0.6030 1.7368E+02
   0.6040 1.7662E+02
   0.6050 1.7633E+02
   0.6060 1.7499E+02
   0.6070 1.7502E+02
   0.6080 1.7368E+02
   0.6090 1.7251E+02
   0.6100 1.7166E+02
   0.6110 1.7164E+02
   0.6120 1.7161E+02
   0.6130 1.6957E+02
   0.6140 1.6737E+02
   0.6150 1.6979E+02
   0.6160 1.6545E+02
   0.6170 1.6439E+02
   0.6180 1.6950E+02
   0.6190 1.6893E+02
   0.6200 1.6992E+02
   0.6210 1.7036E+02
   0.6220 1.6864E+02
   0.6230 1.6710E+02
   0.6240 1.6462E+02
   0.6250 1.6352E+02
   0.6260 1.6440E+02
   0.6270 1.6774E+02
   0.6280 1.6811E+02
   0.6290 1.6780E+02
   0.6300 1.6532E+02
   0.6310 1.6486E+02
   0.6320 1.6245E+02
   0.6330 1.6523E+02
   0.6340 1.6343E+02
   0.6350 1.6462E+02
   0.6360 1.6229E+02
   0.6370 1.6423E+02
   0.6380 1.6445E+02
   0.6390 1.6394E+02
   0.6400 1.6136E+02
   0.6410 1.6052E+02
   0.6420 1.6027E+02
   0.6430 1.6141E+02
   0.6440 1.6034E+02
   0.6450 1.6102E+02
   0.6460 1.5967E+02
   0.6470 1.5923E+02
   0.6480 1.5929E+02
   0.6490 1.5718E+02
   0.6500 1.5423E+02
   0.6510 1.6032E+02
   0.6520 1.5909E+02
   0.6530 1.5847E+02
   0.6540 1.5590E+02
   0.6550 1.5243E+02
   0.6560 1.3780E+02
   0.6570 1.3779E+02
   0.6580 1.5190E+02
   0.6590 1.5422E+02
   0.6600 1.5442E+02
   0.6610 1.5539E+02
   0.6620 1.5548E+02
   0.6630 1.5393E+02
   0.6640 1.5286E+02
   0.6650 1.5349E+02
   0.6660 1.5278E+02
   0.6670 1.5241E+02
   0.6680 1.5269E+02
   0.6690 1.5408E+02
   0.6700 1.5256E+02
   0.6710 1.5202E+02
   0.6720 1.5086E+02
   0.6730 1.5205E+02
   0.6740 1.5167E+02
   0.6750 1.5033E+02
   0.6760 1.5083E+02
   0.6770 1.5015E+02
   0.6780 1.5006E+02
   0.6790 1.4916E+02
   0.6800 1.4807E+02
   0.6810 1.4852E+02
   0.6820 1.4831E+02
   0.6830 1.4774E+02
   0.6840 1.4705E+02
   0.6850 1.4571E+02
   0.6860 1.4425E+02
   0.6870 1.4718E+02
   0.6880 1.4719E+02
   0.6890 1.4705E+02
   0.6900 1.4657E+02
   0.6910 1.4562E+02
   0.6920 1.4441E+02
   0.6930 1.4476E+02
   0.6940 1.4476E+02
   0.6950 1.4435E+02
   0.6960 1.4450E+02
   0.6970 1.4435E+02
   0.6980 1.4210E+02
   0.6990 1.4371E+02
   0.7000 1.4117E+02
   0.7010 1.3857E+02
   0.7020 1.3872E+02
   0.7030 1.3926E+02
   0.7040 1.4086E+02
   0.7050 1.4185E+02
   0.7060 1.4092E+02
   0.7070 1.3931E+02
   0.7080 1.4007E+02
   0.7090 1.3847E+02
   0.7100 1.3924E+02
   0.7110 1.3875E+02
   0.7120 1.3800E+02
   0.7130 1.3723E+02
   0.7140 1.3753E+02
   0.7150 1.3560E+02
   0.7160 1.3590E+02
   0.7170 1.3467E+02
   0.7180 1.3429E+02
   0.7190 1.3279E+02
   0.7200 1.3473E+02
   0.7210 1.3370E+02
   0.7220 1.3413E+02
   0.7230 1.3505E+02
   0.7240 1.3498E+02
   0.7250 1.3430E+02
   0.7260 1.3426E+02
   0.7270 1.3464E+02
   0.7280 1.3211E+02
   0.7290 1.3054E+02
   0.7300 1.3231E+02
   0.7310 1.3182E+02
   0.7320 1.3205E+02
   0.7330 1.3139E+02
   0.7340 1.3218E+02
   0.7350 1.3105E+02
   0.7360 1.3039E+02
   0.7370 1.3066E+02
   0.7380 1.2958E+02
